#Procedure: <__main__.IVProcedure>
#Parameters:
#	Maximum temperature: 15 K
#	Minimum temperature: 11 K
#	Number of power line cycles aka. measurement accurac (0.1/1/10): 1
#	Amperage of heater: 0.75 A
#	Temperature ramp rate: 0.5 K/min
#	Resistance Range: 2000 Ohm
#	Time per measurement: 0.1 s
#Data:
Temperature (K),Resistance (ohm)
10.9579,203.443
10.9588,203.443
10.9598,203.444
10.9608,203.44
10.9623,203.441
10.9633,203.439
10.9642,203.442
10.9651,203.44
10.9666,203.445
10.9676,203.439
10.9686,203.45
10.9696,203.445
10.9705,203.45
10.9714,203.444
10.9724,203.436
10.9734,203.438
10.9743,203.441
10.9757,203.439
10.9766,203.437
10.9776,203.442
10.9785,203.436
10.9795,203.429
10.9804,203.438
10.9814,203.438
10.9823,203.434
10.9837,203.429
10.9846,203.437
10.9856,203.431
10.9866,203.436
10.9875,203.434
10.9885,203.439
10.9894,203.44
10.9903,203.433
10.9912,203.432
10.9926,203.436
10.9935,203.432
10.9945,203.442
10.9954,203.442
10.9964,203.438
10.9974,203.437
10.9988,203.433
10.9997,203.437
11.0007,203.437
11.0016,203.439
11.0025,203.441
11.0034,203.435
11.0049,203.438
11.0059,203.432
11.0068,203.438
11.0077,203.435
11.0086,203.447
11.0096,203.441
11.0106,203.442
11.012,203.445
11.0129,203.444
11.0139,203.442
11.0149,203.44
11.0158,203.44
11.0167,203.442
11.0176,203.44
11.0191,203.439
11.0201,203.443
11.0211,203.443
11.022,203.443
11.0229,203.445
11.0239,203.445
11.0249,203.441
11.0258,203.443
11.0268,203.441
11.0282,203.44
11.0293,203.444
11.0303,203.441
11.0312,203.437
11.0322,203.44
11.0332,203.439
11.0347,203.435
11.0357,203.44
11.0366,203.436
11.0376,203.437
11.0387,203.437
11.0397,203.436
11.0407,203.438
11.0416,203.438
11.0426,203.444
11.0437,203.435
11.0452,203.442
11.0462,203.442
11.0472,203.444
11.0482,203.436
11.0492,203.44
11.0502,203.442
11.0512,203.445
11.0522,203.438
11.0537,203.435
11.0548,203.433
11.0558,203.438
11.0567,203.438
11.0578,203.445
11.0589,203.439
11.06,203.433
11.061,203.432
11.062,203.439
11.0636,203.439
11.0646,203.438
11.0657,203.435
11.0667,203.438
11.0677,203.444
11.0688,203.435
11.0699,203.438
11.071,203.434
11.072,203.443
11.0736,203.436
11.0747,203.437
11.0759,203.441
11.0769,203.441
11.0779,203.441
11.079,203.442
11.0801,203.439
11.0812,203.438
11.0823,203.438
11.0833,203.439
11.0844,203.444
11.0855,203.439
11.0866,203.44
11.0882,203.441
11.0893,203.441
11.0905,203.436
11.0917,203.442
11.0933,203.436
11.0944,203.442
11.0956,203.442
11.0968,203.437
11.0979,203.441
11.099,203.443
11.1006,203.438
11.1018,203.444
11.103,203.445
11.1042,203.44
11.1054,203.445
11.1065,203.442
11.1078,203.448
11.109,203.442
11.1108,203.439
11.112,203.437
11.1131,203.439
11.1144,203.436
11.1156,203.434
11.1167,203.433
11.1179,203.438
11.1191,203.435
11.1203,203.438
11.1216,203.43
11.1233,203.434
11.1245,203.433
11.1257,203.435
11.127,203.429
11.1283,203.438
11.1295,203.434
11.1307,203.432
11.132,203.431
11.1332,203.432
11.135,203.427
11.1362,203.427
11.1375,203.428
11.1387,203.426
11.14,203.424
11.1412,203.42
11.1424,203.426
11.1437,203.428
11.1456,203.426
11.1469,203.426
11.1481,203.421
11.1494,203.425
11.1506,203.425
11.1519,203.436
11.1539,203.433
11.1551,203.434
11.1564,203.426
11.1578,203.437
11.1597,203.43
11.161,203.431
11.1623,203.429
11.1636,203.429
11.165,203.435
11.1663,203.432
11.1676,203.426
11.1688,203.43
11.1703,203.428
11.1723,203.432
11.1737,203.434
11.175,203.427
11.1763,203.432
11.1777,203.43
11.179,203.425
11.1804,203.425
11.1817,203.431
11.1831,203.434
11.1845,203.43
11.1859,203.434
11.1873,203.431
11.1886,203.431
11.1899,203.432
11.1913,203.432
11.1928,203.433
11.1948,203.429
11.1961,203.429
11.1975,203.435
11.1989,203.427
11.2003,203.429
11.2023,203.434
11.2037,203.433
11.2052,203.428
11.2073,203.429
11.2087,203.432
11.2101,203.432
11.2116,203.431
11.2131,203.433
11.2145,203.429
11.2166,203.425
11.218,203.433
11.2195,203.427
11.221,203.424
11.2223,203.428
11.2237,203.431
11.2251,203.432
11.2266,203.431
11.228,203.434
11.2294,203.432
11.2308,203.429
11.2323,203.434
11.2346,203.426
11.2361,203.426
11.2375,203.429
11.2389,203.428
11.2404,203.427
11.242,203.428
11.2434,203.431
11.2448,203.436
11.2463,203.427
11.2477,203.427
11.2493,203.428
11.2508,203.426
11.2529,203.427
11.2544,203.434
11.2559,203.43
11.2575,203.427
11.259,203.429
11.2612,203.426
11.2628,203.424
11.2644,203.432
11.2659,203.429
11.2673,203.429
11.2688,203.425
11.2711,203.427
11.2727,203.426
11.2741,203.426
11.2756,203.432
11.2771,203.424
11.2787,203.429
11.2802,203.424
11.2817,203.427
11.2839,203.426
11.2854,203.431
11.287,203.426
11.2886,203.427
11.2901,203.431
11.2916,203.422
11.2932,203.43
11.2948,203.427
11.2963,203.432
11.2986,203.431
11.3001,203.431
11.3016,203.426
11.3032,203.423
11.3047,203.423
11.3062,203.425
11.3078,203.426
11.3094,203.429
11.311,203.415
11.3134,203.428
11.3149,203.414
11.3165,203.422
11.3181,203.416
11.3197,203.427
11.3212,203.422
11.3228,203.416
11.3244,203.42
11.326,203.424
11.3276,203.419
11.3291,203.423
11.3306,203.427
11.3323,203.43
11.3348,203.432
11.3364,203.425
11.3379,203.428
11.3395,203.423
11.342,203.424
11.3435,203.426
11.345,203.426
11.3466,203.424
11.3483,203.427
11.3499,203.427
11.3515,203.428
11.353,203.429
11.3546,203.433
11.3562,203.432
11.3578,203.428
11.3594,203.425
11.3618,203.429
11.3634,203.433
11.3651,203.428
11.3668,203.428
11.3692,203.43
11.3708,203.431
11.3724,203.431
11.3741,203.429
11.3757,203.427
11.3773,203.428
11.3797,203.434
11.3815,203.428
11.3831,203.428
11.3847,203.427
11.3863,203.435
11.3888,203.425
11.3905,203.432
11.3921,203.43
11.3936,203.426
11.3952,203.425
11.3969,203.429
11.3995,203.43
11.4011,203.429
11.4027,203.426
11.4044,203.433
11.4061,203.429
11.4077,203.432
11.4093,203.426
11.4117,203.415
11.4134,203.421
11.4151,203.42
11.4168,203.412
11.4184,203.418
11.4199,203.419
11.4216,203.422
11.4233,203.417
11.4249,203.416
11.4273,203.423
11.429,203.418
11.4308,203.429
11.4325,203.427
11.4341,203.422
11.4358,203.422
11.4374,203.42
11.4392,203.417
11.4408,203.419
11.4432,203.422
11.4448,203.424
11.4465,203.425
11.4483,203.422
11.45,203.423
11.4516,203.422
11.4533,203.421
11.4551,203.428
11.4578,203.42
11.4595,203.421
11.4612,203.424
11.4629,203.42
11.4646,203.417
11.4664,203.425
11.4681,203.424
11.4698,203.427
11.4716,203.416
11.4734,203.424
11.4751,203.424
11.4768,203.42
11.4793,203.419
11.4811,203.42
11.4829,203.412
11.4846,203.419
11.4872,203.421
11.4889,203.419
11.4907,203.419
11.4926,203.416
11.4943,203.418
11.496,203.421
11.4978,203.424
11.4995,203.423
11.5013,203.423
11.503,203.42
11.5047,203.417
11.5064,203.418
11.5082,203.419
11.51,203.421
11.5117,203.422
11.5134,203.422
11.5152,203.419
11.5178,203.427
11.5196,203.421
11.5213,203.428
11.523,203.429
11.5248,203.43
11.5266,203.428
11.5292,203.425
11.5309,203.425
11.5326,203.423
11.5345,203.423
11.5362,203.423
11.538,203.429
11.5397,203.42
11.5414,203.422
11.5432,203.423
11.545,203.428
11.5476,203.423
11.5493,203.424
11.5511,203.423
11.5529,203.426
11.5546,203.427
11.5563,203.427
11.558,203.428
11.5608,203.424
11.5626,203.429
11.5643,203.425
11.5661,203.418
11.5679,203.418
11.5697,203.421
11.5723,203.423
11.574,203.423
11.5758,203.421
11.5775,203.424
11.5794,203.429
11.5812,203.423
11.5829,203.428
11.5846,203.427
11.5874,203.422
11.5892,203.424
11.5909,203.424
11.5925,203.422
11.5943,203.423
11.5961,203.419
11.5988,203.425
11.6005,203.422
11.6023,203.425
11.6041,203.426
11.6069,203.425
11.6086,203.424
11.6104,203.423
11.6121,203.426
11.614,203.41
11.6158,203.407
11.6175,203.41
11.6192,203.412
11.621,203.411
11.6238,203.409
11.6256,203.408
11.6274,203.41
11.6291,203.411
11.631,203.408
11.6328,203.411
11.6346,203.412
11.6364,203.4
11.6381,203.405
11.6409,203.405
11.6427,203.408
11.6445,203.411
11.6462,203.413
11.648,203.408
11.6499,203.412
11.6517,203.406
11.6535,203.408
11.6562,203.404
11.6581,203.408
11.6599,203.409
11.6617,203.406
11.6634,203.409
11.6652,203.405
11.667,203.408
11.6688,203.409
11.6707,203.409
11.6724,203.408
11.6751,203.409
11.6769,203.399
11.6788,203.406
11.6805,203.41
11.6823,203.4
11.6842,203.403
11.6861,203.406
11.6879,203.402
11.6906,203.404
11.6924,203.406
11.6943,203.408
11.6961,203.402
11.698,203.406
11.6997,203.41
11.7015,203.416
11.7034,203.407
11.7052,203.409
11.7071,203.405
11.7097,203.416
11.7116,203.409
11.7135,203.409
11.7153,203.411
11.7171,203.407
11.7188,203.411
11.7216,203.408
11.7234,203.404
11.7253,203.405
11.7271,203.403
11.7289,203.41
11.7307,203.406
11.7326,203.401
11.7345,203.402
11.7363,203.407
11.7381,203.409
11.7409,203.404
11.7428,203.409
11.7446,203.416
11.7464,203.405
11.7482,203.406
11.7501,203.411
11.7519,203.405
11.7537,203.402
11.7564,203.409
11.7583,203.414
11.7602,203.401
11.7621,203.407
11.7638,203.404
11.7657,203.411
11.7677,203.406
11.7696,203.407
11.7723,203.404
11.7742,203.406
11.776,203.41
11.7779,203.406
11.7798,203.403
11.7817,203.402
11.7835,203.408
11.7854,203.405
11.7873,203.407
11.7901,203.405
11.7918,203.404
11.7937,203.403
11.7956,203.41
11.7975,203.41
11.7993,203.402
11.8011,203.407
11.803,203.406
11.8049,203.407
11.8078,203.406
11.8096,203.408
11.8115,203.406
11.8133,203.407
11.8152,203.408
11.8172,203.403
11.819,203.406
11.8208,203.407
11.8227,203.411
11.8256,203.405
11.8274,203.404
11.8292,203.405
11.831,203.409
11.833,203.406
11.8349,203.406
11.8368,203.405
11.8386,203.412
11.8404,203.41
11.8424,203.409
11.8453,203.405
11.8471,203.409
11.849,203.408
11.8509,203.412
11.8528,203.407
11.8547,203.41
11.8566,203.407
11.8584,203.406
11.8603,203.406
11.8632,203.407
11.8651,203.411
11.8669,203.403
11.8688,203.408
11.8707,203.406
11.8726,203.412
11.8745,203.407
11.8763,203.409
11.8792,203.404
11.8812,203.399
11.8831,203.401
11.885,203.402
11.8868,203.407
11.8887,203.399
11.8906,203.404
11.8925,203.405
11.8944,203.403
11.8972,203.408
11.8991,203.404
11.901,203.402
11.903,203.406
11.9048,203.401
11.9067,203.405
11.9096,203.406
11.9115,203.405
11.9134,203.4
11.9153,203.398
11.9172,203.397
11.9192,203.401
11.9211,203.398
11.923,203.404
11.9248,203.398
11.9267,203.402
11.9297,203.398
11.9316,203.401
11.9335,203.404
11.9353,203.407
11.9373,203.404
11.9393,203.404
11.9412,203.402
11.9431,203.404
11.946,203.404
11.9479,203.401
11.9499,203.403
11.9518,203.402
11.9536,203.399
11.9555,203.399
11.9574,203.397
11.9594,203.405
11.9613,203.402
11.9641,203.407
11.966,203.401
11.9679,203.404
11.9699,203.398
11.9717,203.402
11.9735,203.402
11.9755,203.403
11.9774,203.408
11.9794,203.401
11.9812,203.403
11.9831,203.407
11.985,203.401
11.987,203.404
11.9899,203.404
11.9916,203.403
11.9936,203.406
11.9955,203.409
11.9983,203.407
12.0001,203.411
12.002,203.411
12.004,203.413
12.006,203.409
12.0079,203.406
12.0098,203.404
12.0117,203.414
12.0136,203.41
12.0155,203.407
12.0174,203.403
12.0192,203.407
12.0211,203.407
12.023,203.404
12.025,203.407
12.0269,203.403
12.0288,203.406
12.0317,203.41
12.0336,203.406
12.0355,203.406
12.0374,203.405
12.0392,203.406
12.0411,203.408
12.043,203.405
12.045,203.408
12.0478,203.411
12.0497,203.41
12.0516,203.403
12.0536,203.401
12.0555,203.41
12.0573,203.4
12.0592,203.419
12.0612,203.409
12.0641,203.41
12.066,203.404
12.0679,203.411
12.0698,203.411
12.0718,203.405
12.0738,203.401
12.0765,203.416
12.0784,203.415
12.0804,203.41
12.0823,203.405
12.0843,203.409
12.0861,203.406
12.088,203.412
12.0899,203.404
12.0919,203.411
12.0947,203.406
12.0965,203.414
12.0984,203.408
12.1003,203.407
12.1023,203.401
12.1041,203.397
12.1069,203.408
12.1088,203.402
12.1108,203.402
12.1127,203.399
12.1146,203.408
12.1164,203.407
12.1184,203.408
12.1203,203.403
12.1222,203.407
12.1241,203.411
12.1269,203.408
12.1289,203.411
12.1308,203.41
12.1326,203.413
12.1345,203.407
12.1364,203.41
12.1384,203.41
12.1403,203.406
12.143,203.406
12.1449,203.411
12.1468,203.408
12.1488,203.406
12.1507,203.415
12.1525,203.41
12.1543,203.408
12.1562,203.405
12.1581,203.405
12.16,203.406
12.1618,203.405
12.1637,203.404
12.1656,203.402
12.1676,203.406
12.1694,203.404
12.1712,203.405
12.174,203.404
12.176,203.405
12.1779,203.401
12.1797,203.407
12.1815,203.409
12.1834,203.409
12.1853,203.403
12.1871,203.4
12.1889,203.405
12.1916,203.412
12.1935,203.407
12.1954,203.407
12.1973,203.41
12.1991,203.411
12.201,203.413
12.2029,203.407
12.2056,203.402
12.2075,203.406
12.2092,203.409
12.2111,203.406
12.213,203.403
12.2158,203.399
12.2176,203.404
12.2194,203.407
12.2213,203.409
12.2232,203.405
12.225,203.404
12.2267,203.403
12.2295,203.403
12.2313,203.404
12.2331,203.405
12.2349,203.403
12.2367,203.405
12.2386,203.409
12.2404,203.398
12.2432,203.406
12.245,203.399
12.2468,203.405
12.2486,203.402
12.2506,203.4
12.2524,203.408
12.2543,203.405
12.2561,203.404
12.259,203.404
12.2609,203.403
12.2628,203.397
12.2646,203.407
12.2665,203.402
12.2684,203.405
12.2703,203.403
12.2721,203.406
12.2739,203.402
12.2768,203.403
12.2787,203.402
12.2806,203.4
12.2824,203.4
12.2843,203.401
12.2862,203.401
12.2881,203.404
12.29,203.401
12.2917,203.405
12.2945,203.402
12.2964,203.404
12.2983,203.4
12.3001,203.401
12.3019,203.401
12.3037,203.401
12.3057,203.402
12.3076,203.403
12.3094,203.399
12.3121,203.403
12.3141,203.402
12.316,203.402
12.3177,203.403
12.3195,203.4
12.3213,203.4
12.3231,203.402
12.3251,203.402
12.3269,203.402
12.3287,203.398
12.3305,203.4
12.3324,203.401
12.3343,203.4
12.3369,203.399
12.3387,203.404
12.3405,203.398
12.3424,203.392
12.3451,203.393
12.3469,203.398
12.3487,203.403
12.3505,203.399
12.3524,203.397
12.3542,203.398
12.3559,203.397
12.3576,203.396
12.3604,203.405
12.3623,203.398
12.364,203.396
12.3658,203.406
12.3676,203.394
12.3694,203.395
12.3713,203.397
12.373,203.397
12.3757,203.404
12.3776,203.397
12.3794,203.402
12.3812,203.4
12.3829,203.393
12.3846,203.396
12.3864,203.407
12.3891,203.407
12.3908,203.41
12.3925,203.418
12.3943,203.415
12.3961,203.414
12.3979,203.415
12.3996,203.414
12.4013,203.415
12.4032,203.416
12.4059,203.409
12.4076,203.413
12.4093,203.416
12.4111,203.409
12.4129,203.412
12.4147,203.417
12.4164,203.416
12.4181,203.412
12.4199,203.413
12.4225,203.409
12.4243,203.409
12.426,203.411
12.4277,203.411
12.4295,203.415
12.4313,203.408
12.4331,203.409
12.4347,203.404
12.4364,203.403
12.4391,203.414
12.4409,203.404
12.4426,203.404
12.4443,203.405
12.446,203.403
12.4478,203.414
12.4495,203.407
12.4513,203.409
12.4529,203.41
12.4555,203.402
12.4573,203.413
12.459,203.408
12.4607,203.408
12.4624,203.411
12.4642,203.405
12.466,203.407
12.4677,203.408
12.4694,203.408
12.471,203.406
12.4728,203.412
12.4746,203.409
12.4763,203.403
12.4787,203.409
12.4805,203.404
12.4822,203.406
12.4849,203.405
12.4866,203.408
12.4883,203.405
12.49,203.41
12.4918,203.413
12.4935,203.413
12.4951,203.412
12.4976,203.417
12.4993,203.419
12.501,203.417
12.5027,203.416
12.5044,203.409
12.5061,203.407
12.5078,203.406
12.5096,203.409
12.5113,203.406
12.5138,203.414
12.5155,203.408
12.5172,203.416
12.5189,203.405
12.5206,203.409
12.5223,203.41
12.524,203.409
12.5257,203.408
12.5274,203.406
12.5291,203.406
12.5316,203.408
12.5333,203.41
12.5351,203.41
12.5367,203.408
12.5383,203.409
12.54,203.415
12.5426,203.406
12.5442,203.408
12.5458,203.411
12.5474,203.408
12.5491,203.409
12.5508,203.412
12.5525,203.406
12.5542,203.413
12.5558,203.413
12.5575,203.409
12.5601,203.412
12.5618,203.407
12.5634,203.407
12.5651,203.404
12.5668,203.408
12.5685,203.411
12.5702,203.41
12.5718,203.406
12.5734,203.41
12.5759,203.406
12.5775,203.404
12.5792,203.41
12.5807,203.404
12.5824,203.412
12.5841,203.407
12.5858,203.41
12.5874,203.405
12.5898,203.404
12.5915,203.406
12.5932,203.404
12.5948,203.405
12.5964,203.405
12.5981,203.406
12.5998,203.412
12.6015,203.404
12.6032,203.405
12.6048,203.416
12.6064,203.41
12.6081,203.414
12.6098,203.413
12.6114,203.408
12.613,203.411
12.6155,203.415
12.6172,203.414
12.6188,203.411
12.6204,203.41
12.622,203.409
12.6237,203.408
12.6254,203.412
12.627,203.407
12.6286,203.409
12.6311,203.41
12.6327,203.408
12.6344,203.413
12.636,203.409
12.6375,203.413
12.6391,203.409
12.6408,203.406
12.6425,203.406
12.6442,203.403
12.6458,203.405
12.6483,203.402
12.65,203.403
12.6516,203.4
12.6532,203.408
12.6548,203.409
12.6564,203.404
12.6581,203.401
12.6597,203.401
12.6612,203.403
12.6636,203.404
12.6653,203.402
12.6669,203.412
12.6685,203.408
12.6701,203.406
12.6717,203.411
12.6734,203.403
12.6759,203.404
12.6775,203.405
12.679,203.402
12.6807,203.401
12.6824,203.405
12.684,203.405
12.6856,203.409
12.6879,203.403
12.6896,203.402
12.6912,203.404
12.6928,203.403
12.6945,203.407
12.6961,203.405
12.6977,203.403
12.6994,203.399
12.701,203.404
12.7026,203.406
12.7051,203.412
12.7068,203.404
12.7084,203.402
12.71,203.404
12.7116,203.405
12.7132,203.404
12.7148,203.401
12.7165,203.402
12.7188,203.405
12.7204,203.404
12.7221,203.4
12.7238,203.399
12.7254,203.403
12.727,203.406
12.7287,203.404
12.7303,203.401
12.7319,203.408
12.7343,203.403
12.7358,203.405
12.7375,203.403
12.7391,203.404
12.7408,203.402
12.7423,203.407
12.7439,203.407
12.7456,203.409
12.7472,203.404
12.7496,203.405
12.7512,203.407
12.7528,203.406
12.7544,203.402
12.756,203.407
12.7576,203.406
12.7592,203.413
12.7609,203.411
12.7634,203.409
12.765,203.403
12.7666,203.405
12.7682,203.403
12.7698,203.399
12.7714,203.399
12.7739,203.402
12.7754,203.402
12.777,203.396
12.7786,203.401
12.7803,203.399
12.7819,203.398
12.7834,203.404
12.7851,203.405
12.7867,203.401
12.7884,203.399
12.79,203.407
12.7915,203.409
12.794,203.411
12.7957,203.406
12.7973,203.407
12.7988,203.407
12.8004,203.402
12.8028,203.403
12.8045,203.402
12.8061,203.403
12.8077,203.392
12.8093,203.405
12.811,203.395
12.8126,203.397
12.8142,203.393
12.8157,203.395
12.8173,203.397
12.8198,203.392
12.8214,203.391
12.823,203.395
12.8246,203.396
12.8263,203.395
12.8279,203.395
12.8295,203.401
12.8311,203.399
12.8327,203.405
12.8351,203.403
12.8368,203.395
12.8384,203.395
12.84,203.4
12.8415,203.401
12.8432,203.404
12.8448,203.398
12.8464,203.392
12.848,203.399
12.8504,203.4
12.852,203.395
12.8536,203.397
12.8552,203.4
12.8568,203.398
12.8585,203.4
12.8601,203.406
12.8617,203.401
12.8633,203.407
12.8657,203.408
12.8673,203.409
12.869,203.403
12.8705,203.403
12.8721,203.409
12.8737,203.41
12.8754,203.406
12.877,203.406
12.8786,203.408
12.8809,203.409
12.8826,203.405
12.8842,203.407
12.8858,203.405
12.8874,203.402
12.889,203.402
12.8906,203.402
12.8922,203.405
12.8937,203.403
12.8961,203.406
12.8977,203.409
12.8994,203.405
12.901,203.405
12.9026,203.395
12.9042,203.394
12.9058,203.396
12.9074,203.396
12.909,203.396
12.9106,203.395
12.9122,203.394
12.9138,203.399
12.9155,203.397
12.9171,203.393
12.9187,203.393
12.9202,203.401
12.9218,203.4
12.9235,203.404
12.9252,203.398
12.9275,203.406
12.9291,203.405
12.9307,203.408
12.9324,203.407
12.934,203.404
12.9364,203.404
12.938,203.408
12.9397,203.409
12.9414,203.404
12.9429,203.403
12.9445,203.403
12.9462,203.404
12.9478,203.403
12.9495,203.4
12.9511,203.404
12.9527,203.405
12.9551,203.403
12.9568,203.403
12.9584,203.403
12.96,203.402
12.9616,203.4
12.9642,203.405
12.9659,203.402
12.9674,203.401
12.969,203.403
12.9707,203.411
12.9724,203.402
12.974,203.402
12.9764,203.408
12.9781,203.401
12.9798,203.407
12.9815,203.404
12.9831,203.402
12.9847,203.403
12.9864,203.403
12.9881,203.401
12.9898,203.402
12.9915,203.403
12.9938,203.41
12.9955,203.407
12.9972,203.409
12.9989,203.4
13.0005,203.408
13.0021,203.402
13.0047,203.405
13.0064,203.403
13.008,203.406
13.0096,203.4
13.0112,203.407
13.0129,203.405
13.0146,203.4
13.0162,203.401
13.0178,203.402
13.0195,203.4
13.022,203.398
13.0237,203.399
13.0253,203.407
13.027,203.411
13.0286,203.408
13.0303,203.415
13.032,203.41
13.0337,203.417
13.0353,203.421
13.0378,203.421
13.0395,203.409
13.0411,203.408
13.0426,203.409
13.0443,203.41
13.046,203.407
13.0477,203.406
13.0494,203.406
13.051,203.408
13.0535,203.406
13.0553,203.405
13.0572,203.403
13.0589,203.408
13.0606,203.404
13.0623,203.407
13.064,203.416
13.0657,203.421
13.0682,203.42
13.0699,203.421
13.0716,203.417
13.0734,203.413
13.0751,203.421
13.0767,203.416
13.0784,203.419
13.0801,203.414
13.0819,203.42
13.0845,203.418
13.0861,203.417
13.0878,203.415
13.0896,203.416
13.0914,203.418
13.0932,203.417
13.0958,203.418
13.0975,203.416
13.0993,203.414
13.101,203.414
13.1027,203.415
13.1044,203.418
13.1061,203.423
13.1079,203.424
13.1097,203.424
13.1113,203.42
13.113,203.426
13.1156,203.424
13.1174,203.422
13.1191,203.423
13.1208,203.421
13.1225,203.421
13.1243,203.421
13.126,203.423
13.1277,203.426
13.1303,203.422
13.132,203.426
13.1338,203.42
13.1355,203.418
13.1372,203.417
13.1388,203.431
13.1415,203.421
13.1432,203.421
13.1448,203.417
13.1465,203.415
13.1482,203.413
13.15,203.416
13.1517,203.422
13.1534,203.417
13.1551,203.42
13.1569,203.421
13.1595,203.416
13.1613,203.422
13.1629,203.422
13.1647,203.424
13.1664,203.413
13.1682,203.417
13.1699,203.422
13.1715,203.415
13.1732,203.417
13.175,203.416
13.1768,203.422
13.1785,203.417
13.1802,203.42
13.1828,203.421
13.1846,203.419
13.1863,203.419
13.1879,203.415
13.1905,203.414
13.1922,203.419
13.194,203.419
13.1957,203.421
13.1974,203.418
13.1992,203.416
13.2009,203.415
13.2026,203.411
13.2043,203.415
13.2069,203.422
13.2086,203.427
13.2103,203.416
13.2121,203.417
13.2138,203.415
13.2155,203.422
13.2173,203.415
13.219,203.412
13.2207,203.421
13.2224,203.416
13.2241,203.419
13.2258,203.418
13.2276,203.417
13.2294,203.42
13.232,203.419
13.2337,203.424
13.2354,203.422
13.2372,203.422
13.2389,203.424
13.2406,203.433
13.2423,203.417
13.244,203.41
13.2458,203.411
13.2475,203.415
13.25,203.415
13.2517,203.408
13.2535,203.405
13.2553,203.407
13.2569,203.405
13.2586,203.408
13.2604,203.406
13.2621,203.403
13.2647,203.416
13.2664,203.411
13.2681,203.411
13.2698,203.408
13.2716,203.412
13.2733,203.411
13.2749,203.415
13.2767,203.419
13.2785,203.419
13.2802,203.414
13.2828,203.415
13.2845,203.409
13.2863,203.412
13.2881,203.418
13.2898,203.413
13.2916,203.412
13.2933,203.416
13.295,203.415
13.2968,203.413
13.2993,203.414
13.301,203.411
13.3027,203.411
13.3045,203.41
13.3062,203.415
13.3079,203.415
13.3104,203.414
13.3121,203.416
13.3139,203.412
13.3156,203.415
13.3173,203.416
13.3189,203.413
13.3207,203.412
13.3224,203.41
13.325,203.413
13.3267,203.414
13.3283,203.411
13.33,203.409
13.3318,203.411
13.3336,203.411
13.3362,203.411
13.3379,203.412
13.3397,203.417
13.3414,203.414
13.3439,203.411
13.3456,203.416
13.3474,203.416
13.3491,203.415
13.3508,203.417
13.3525,203.414
13.3543,203.418
13.356,203.411
13.3578,203.414
13.3604,203.415
13.3621,203.413
13.3638,203.409
13.3655,203.412
13.3673,203.41
13.3689,203.414
13.3706,203.412
13.3723,203.412
13.3741,203.411
13.3758,203.41
13.3775,203.412
13.3792,203.408
13.3809,203.412
13.3835,203.411
13.3852,203.415
13.3869,203.419
13.3886,203.414
13.3912,203.413
13.393,203.413
13.3946,203.415
13.3963,203.416
13.398,203.417
13.3997,203.415
13.4015,203.413
13.4031,203.414
13.4048,203.419
13.4074,203.414
13.4091,203.412
13.4108,203.421
13.4125,203.42
13.4143,203.414
13.416,203.419
13.4177,203.419
13.4194,203.423
13.4219,203.419
13.4236,203.418
13.4254,203.415
13.4271,203.415
13.4288,203.419
13.4304,203.421
13.4321,203.421
13.4347,203.428
13.4364,203.426
13.4381,203.429
13.4398,203.423
13.4415,203.421
13.4432,203.418
13.4458,203.422
13.4475,203.421
13.4491,203.42
13.4508,203.418
13.4525,203.422
13.4542,203.418
13.4558,203.434
13.4575,203.424
13.4601,203.423
13.4618,203.438
13.4635,203.44
13.4652,203.435
13.467,203.432
13.4687,203.428
13.4704,203.426
13.4721,203.429
13.4737,203.427
13.4763,203.427
13.478,203.425
13.4797,203.427
13.4813,203.425
13.4831,203.428
13.4848,203.43
13.4865,203.429
13.4883,203.427
13.49,203.427
13.4926,203.427
13.4943,203.429
13.4961,203.425
13.4977,203.43
13.4994,203.428
13.5012,203.428
13.5038,203.425
13.5055,203.427
13.5073,203.426
13.509,203.428
13.5117,203.426
13.5134,203.425
13.515,203.428
13.5167,203.428
13.5185,203.427
13.5202,203.427
13.5219,203.425
13.5236,203.427
13.5253,203.422
13.527,203.426
13.5287,203.425
13.5305,203.427
13.5322,203.425
13.5338,203.426
13.5356,203.425
13.5374,203.426
13.5391,203.435
13.5417,203.435
13.5435,203.438
13.5453,203.441
13.547,203.435
13.5487,203.437
13.5504,203.434
13.5521,203.439
13.5539,203.438
13.5564,203.438
13.5581,203.431
13.5598,203.433
13.5616,203.431
13.5634,203.435
13.5651,203.434
13.5668,203.439
13.5686,203.436
13.5712,203.442
13.5729,203.439
13.5746,203.441
13.5763,203.442
13.5781,203.44
13.5798,203.434
13.5816,203.43
13.5833,203.444
13.5858,203.442
13.5876,203.431
13.5893,203.424
13.5911,203.432
13.5928,203.438
13.5945,203.439
13.5962,203.428
13.598,203.429
13.5997,203.441
13.6014,203.44
13.6031,203.439
13.6048,203.439
13.6066,203.433
13.6084,203.43
13.6101,203.437
13.6127,203.437
13.6145,203.435
13.6162,203.434
13.6179,203.433
13.6196,203.428
13.6214,203.424
13.6231,203.433
13.6248,203.432
13.6265,203.438
13.629,203.431
13.6308,203.431
13.6326,203.432
13.6343,203.431
13.636,203.431
13.6377,203.432
13.6403,203.435
13.6421,203.428
13.6437,203.436
13.6455,203.431
13.6481,203.437
13.6498,203.432
13.6515,203.439
13.6532,203.437
13.6549,203.438
13.6567,203.437
13.6585,203.434
13.6603,203.437
13.662,203.432
13.6638,203.437
13.6655,203.445
13.6673,203.434
13.669,203.433
13.6715,203.432
13.6733,203.426
13.675,203.424
13.6776,203.429
13.6793,203.428
13.681,203.43
13.6827,203.425
13.6845,203.423
13.6862,203.423
13.6879,203.421
13.6896,203.425
13.6914,203.425
13.6931,203.424
13.6956,203.428
13.6972,203.428
13.699,203.426
13.7008,203.425
13.7025,203.425
13.7049,203.426
13.7066,203.432
13.7083,203.437
13.71,203.428
13.7116,203.43
13.7132,203.429
13.7148,203.434
13.7165,203.432
13.7181,203.422
13.7196,203.428
13.7212,203.427
13.7234,203.433
13.725,203.43
13.7265,203.429
13.728,203.431
13.7295,203.426
13.7318,203.424
13.7325,203.423
13.7349,203.429
13.7365,203.434
13.738,203.439
13.7396,203.435
13.7413,203.426
13.7429,203.431
13.7445,203.428
13.7471,203.427
13.7488,203.432
13.7506,203.43
13.7523,203.431
13.7541,203.43
13.756,203.432
13.7578,203.431
13.7596,203.427
13.7614,203.433
13.7641,203.429
13.7659,203.432
13.7678,203.429
13.7696,203.427
13.7714,203.429
13.7733,203.427
13.7752,203.428
13.777,203.427
13.7789,203.425
13.7816,203.428
13.7834,203.429
13.7853,203.429
13.7871,203.43
13.789,203.431
13.7908,203.43
13.7927,203.429
13.7946,203.429
13.7965,203.435
13.7993,203.432
13.8011,203.428
13.8031,203.427
13.805,203.424
13.8069,203.426
13.8087,203.431
13.8115,203.428
13.8135,203.424
13.8154,203.43
13.8173,203.431
13.8192,203.427
13.8211,203.432
13.8231,203.429
13.825,203.431
13.8277,203.434
13.8296,203.442
13.8316,203.436
13.8335,203.437
13.8363,203.438
13.8382,203.441
13.8401,203.431
13.8421,203.437
13.844,203.435
13.846,203.438
13.8479,203.436
13.8498,203.433
13.8527,203.438
13.8546,203.429
13.8565,203.437
13.8584,203.437
13.8604,203.433
13.8623,203.43
13.8642,203.429
13.8671,203.431
13.8691,203.435
13.871,203.434
13.8729,203.427
13.8748,203.428
13.8767,203.424
13.8786,203.429
13.8806,203.427
13.8835,203.43
13.8854,203.426
13.8873,203.434
13.8893,203.428
13.8913,203.426
13.8933,203.429
13.8951,203.431
13.8971,203.425
13.8991,203.434
13.902,203.432
13.9039,203.436
13.9059,203.432
13.9079,203.432
13.9099,203.434
13.9119,203.438
13.9148,203.433
13.9168,203.433
13.9188,203.434
13.9208,203.43
13.9237,203.437
13.9257,203.44
13.9277,203.436
13.9297,203.436
13.9317,203.437
13.9336,203.441
13.9356,203.433
13.9376,203.432
13.9396,203.439
13.9415,203.433
13.9435,203.429
13.9454,203.431
13.9474,203.439
13.9504,203.431
13.9524,203.437
13.9543,203.433
13.9563,203.432
13.9593,203.431
13.9613,203.45
13.9632,203.446
13.9651,203.455
13.9671,203.449
13.9691,203.456
13.9711,203.457
13.973,203.458
13.975,203.455
13.977,203.452
13.979,203.454
13.9809,203.453
13.9828,203.453
13.9858,203.454
13.9878,203.455
13.9898,203.453
13.9918,203.449
13.9946,203.453
13.9966,203.466
13.9986,203.467
14.0006,203.464
14.0025,203.47
14.0045,203.467
14.0064,203.468
14.0084,203.47
14.0113,203.467
14.0133,203.467
14.0152,203.472
14.0172,203.471
14.0192,203.464
14.0211,203.462
14.024,203.467
14.0259,203.462
14.0279,203.467
14.0299,203.46
14.0319,203.471
14.0338,203.461
14.0357,203.467
14.0377,203.474
14.0397,203.481
14.0416,203.477
14.0445,203.472
14.0464,203.477
14.0484,203.48
14.0504,203.471
14.0523,203.476
14.0542,203.467
14.0562,203.462
14.0581,203.478
14.061,203.476
14.0629,203.476
14.0648,203.473
14.0668,203.475
14.0687,203.478
14.0705,203.473
14.0725,203.47
14.0744,203.47
14.0763,203.47
14.0791,203.469
14.081,203.474
14.0829,203.469
14.0848,203.473
14.0867,203.479
14.0886,203.473
14.0905,203.478
14.0924,203.479
14.0943,203.478
14.0972,203.474
14.099,203.477
14.1008,203.476
14.1027,203.477
14.1047,203.477
14.1066,203.476
14.1084,203.478
14.1103,203.479
14.1122,203.473
14.114,203.469
14.1159,203.472
14.1177,203.472
14.1196,203.472
14.1223,203.477
14.1242,203.485
14.1261,203.487
14.1279,203.484
14.1307,203.472
14.1326,203.476
14.1344,203.474
14.1362,203.476
14.1381,203.48
14.14,203.476
14.1418,203.484
14.1437,203.483
14.1464,203.482
14.1482,203.476
14.1502,203.476
14.152,203.477
14.1539,203.475
14.1557,203.471
14.1575,203.471
14.1593,203.471
14.162,203.475
14.1638,203.475
14.1657,203.47
14.1675,203.482
14.1693,203.472
14.1711,203.471
14.1729,203.475
14.1757,203.475
14.1775,203.482
14.1793,203.485
14.1811,203.479
14.1829,203.479
14.1856,203.509
14.1875,203.493
14.1892,203.501
14.191,203.501
14.1928,203.502
14.1945,203.493
14.1972,203.493
14.199,203.496
14.2008,203.496
14.2026,203.5
14.2044,203.497
14.2062,203.496
14.2079,203.495
14.2097,203.487
14.2114,203.497
14.2141,203.486
14.2158,203.492
14.2175,203.494
14.2193,203.494
14.2211,203.485
14.2229,203.501
14.2247,203.491
14.2264,203.491
14.2282,203.491
14.2308,203.487
14.2326,203.496
14.2343,203.492
14.236,203.492
14.2377,203.492
14.2394,203.49
14.2412,203.507
14.2429,203.492
14.2446,203.496
14.2472,203.493
14.2489,203.496
14.2507,203.495
14.2524,203.489
14.2541,203.494
14.2559,203.49
14.2576,203.501
14.2594,203.491
14.2611,203.497
14.2628,203.49
14.2645,203.495
14.2662,203.501
14.2679,203.494
14.2696,203.498
14.2722,203.5
14.2739,203.506
14.2756,203.486
14.2773,203.484
14.279,203.482
14.2807,203.482
14.2824,203.494
14.2841,203.483
14.2858,203.487
14.2875,203.483
14.2901,203.479
14.2918,203.482
14.2935,203.484
14.2952,203.482
14.2969,203.488
14.2987,203.483
14.3004,203.483
14.302,203.486
14.3037,203.492
14.3062,203.493
14.3078,203.487
14.3096,203.484
14.3113,203.478
14.3129,203.479
14.3146,203.481
14.3163,203.486
14.318,203.487
14.3196,203.49
14.3221,203.489
14.3238,203.489
14.3255,203.49
14.3272,203.492
14.3288,203.49
14.3304,203.491
14.3321,203.494
14.3338,203.49
14.3354,203.496
14.3379,203.489
14.3395,203.492
14.3412,203.49
14.3428,203.497
14.3445,203.492
14.3461,203.492
14.3485,203.489
14.3502,203.51
14.3519,203.499
14.3536,203.495
14.3552,203.497
14.3568,203.5
14.3585,203.504
14.3602,203.505
14.3618,203.509
14.3635,203.503
14.3659,203.49
14.3676,203.516
14.3692,203.509
14.3708,203.503
14.3725,203.508
14.3741,203.498
14.3757,203.516
14.3773,203.5
14.3797,203.496
14.3813,203.499
14.383,203.504
14.3846,203.501
14.3862,203.499
14.3878,203.501
14.3895,203.5
14.3911,203.503
14.3935,203.491
14.3951,203.498
14.3966,203.504
14.3983,203.505
14.3999,203.499
14.4015,203.498
14.4031,203.496
14.4047,203.507
14.4062,203.511
14.4086,203.508
14.4102,203.51
14.4118,203.502
14.4134,203.495
14.415,203.511
14.4166,203.51
14.4182,203.512
14.4198,203.516
14.4214,203.509
14.423,203.505
14.4254,203.515
14.4269,203.513
14.4286,203.51
14.4302,203.51
14.4318,203.511
14.4334,203.516
14.4349,203.51
14.4366,203.511
14.4382,203.506
14.4406,203.509
14.4422,203.509
14.4437,203.506
14.4453,203.507
14.4469,203.508
14.4485,203.503
14.4509,203.504
14.4524,203.5
14.454,203.499
14.4556,203.501
14.4572,203.502
14.4596,203.506
14.4612,203.504
14.4628,203.509
14.4645,203.498
14.4661,203.503
14.4676,203.501
14.47,203.504
14.4716,203.501
14.4732,203.505
14.4747,203.509
14.4762,203.508
14.4779,203.503
14.4795,203.503
14.481,203.507
14.4825,203.508
14.4841,203.501
14.4857,203.503
14.4873,203.516
14.4889,203.505
14.4904,203.504
14.492,203.51
14.4944,203.514
14.496,203.506
14.4975,203.507
14.4991,203.508
14.5007,203.502
14.5023,203.503
14.5038,203.503
14.5054,203.504
14.5077,203.506
14.5093,203.511
14.5109,203.51
14.5124,203.502
14.5139,203.505
14.5155,203.503
14.517,203.506
14.5186,203.505
14.5209,203.506
14.5225,203.506
14.5241,203.515
14.5256,203.517
14.5272,203.508
14.5287,203.518
14.5311,203.511
14.5327,203.519
14.5343,203.512
14.5359,203.514
14.5375,203.511
14.539,203.515
14.5407,203.545
14.5423,203.546
14.5438,203.551
14.5461,203.548
14.5477,203.543
14.5493,203.552
14.5509,203.542
14.5524,203.544
14.554,203.545
14.5556,203.542
14.5572,203.542
14.5587,203.541
14.5602,203.541
14.5627,203.541
14.5643,203.543
14.5659,203.542
14.5675,203.542
14.569,203.545
14.5705,203.543
14.5721,203.548
14.5736,203.54
14.5752,203.529
14.5776,203.528
14.5792,203.529
14.5808,203.534
14.5823,203.536
14.5839,203.543
14.5854,203.536
14.587,203.531
14.5886,203.541
14.5901,203.537
14.5925,203.536
14.5941,203.538
14.5957,203.538
14.5972,203.539
14.5988,203.54
14.6003,203.536
14.6018,203.538
14.6034,203.537
14.605,203.539
14.6073,203.536
14.6089,203.533
14.6105,203.53
14.6121,203.558
14.6137,203.544
14.6153,203.55
14.6169,203.546
14.6185,203.553
14.6209,203.549
14.6224,203.544
14.624,203.542
14.6256,203.542
14.6272,203.554
14.6288,203.54
14.6304,203.535
14.632,203.533
14.6343,203.532
14.636,203.526
14.6375,203.531
14.6391,203.531
14.6407,203.529
14.6424,203.529
14.644,203.53
14.6456,203.528
14.6471,203.535
14.6487,203.535
14.6504,203.534
14.652,203.537
14.6535,203.533
14.6551,203.54
14.6567,203.531
14.6583,203.542
14.6607,203.547
14.6623,203.543
14.6639,203.541
14.6655,203.549
14.6672,203.581
14.6688,203.563
14.6704,203.56
14.672,203.558
14.6737,203.556
14.6762,203.567
14.6778,203.566
14.6795,203.56
14.6811,203.564
14.6827,203.559
14.6843,203.563
14.6859,203.558
14.6875,203.565
14.6892,203.554
14.6908,203.554
14.6933,203.556
14.6949,203.554
14.6964,203.558
14.6981,203.567
14.6997,203.565
14.7013,203.559
14.7029,203.557
14.7045,203.558
14.7061,203.563
14.7085,203.559
14.7102,203.561
14.7118,203.554
14.7134,203.565
14.7151,203.552
14.7167,203.568
14.7183,203.568
14.7199,203.565
14.7223,203.564
14.7239,203.579
14.7255,203.564
14.7271,203.563
14.7286,203.565
14.7303,203.566
14.7327,203.561
14.7343,203.56
14.7358,203.568
14.7374,203.564
14.739,203.564
14.7407,203.57
14.7423,203.57
14.7439,203.567
14.7464,203.564
14.748,203.566
14.7497,203.581
14.7514,203.568
14.753,203.571
14.7547,203.576
14.7574,203.565
14.759,203.575
14.7607,203.573
14.7623,203.568
14.7649,203.565
14.7666,203.577
14.7682,203.572
14.77,203.573
14.7717,203.588
14.7734,203.585
14.7751,203.598
14.7768,203.595
14.7793,203.591
14.7811,203.594
14.7828,203.588
14.7853,203.597
14.787,203.599
14.7887,203.6
14.7904,203.601
14.7921,203.586
14.7938,203.59
14.7964,203.598
14.7981,203.581
14.7999,203.604
14.8016,203.607
14.8033,203.605
14.8051,203.595
14.8076,203.595
14.8094,203.612
14.8111,203.594
14.8128,203.597
14.8145,203.601
14.8163,203.6
14.818,203.59
14.8197,203.592
14.8214,203.594
14.8232,203.59
14.8249,203.591
14.8266,203.589
14.8292,203.59
14.8309,203.587
14.8327,203.589
14.8344,203.606
14.8362,203.593
14.8379,203.602
14.8396,203.601
14.8414,203.612
14.844,203.626
14.8457,203.622
14.8474,203.625
14.8492,203.622
14.8509,203.626
14.8527,203.632
14.8544,203.631
14.8561,203.624
14.8578,203.619
14.8604,203.628
14.8621,203.624
14.8638,203.626
14.8655,203.625
14.8673,203.625
14.869,203.619
14.8707,203.62
14.8733,203.622
14.875,203.625
14.8768,203.614
14.8785,203.619
14.8803,203.619
14.8819,203.62
14.8837,203.615
14.8864,203.645
14.8881,203.627
14.8898,203.628
14.8915,203.63
14.8933,203.628
14.895,203.652
14.8967,203.643
14.8984,203.648
14.9001,203.651
